File: 4.GBDT/.ipynb_checkpoints/data-checkpoint.csv
MA_ratio,FA_ratio,Cs_ratio,Pb_ratio,Sn_ratio,other_ratio,I_ratio,Br_ratio,po_electrode,ETL/ETM,HTL/HTM,ne_eletrode,effective area (cm2),additive_O,additive_I,additive_H,passivation,step,dissolvent,coated1_s(rpm),coated1_t (s),coated2_s(rpm),coated2_t (s),anti-solvent,anneal_T (℃),anneal_t (min),,Jsc (mA/cm2),Voc (V),FF,PCE (%)
0.933271,0,0,0.526316,0,0,0.824516,0,1,1,1,0.666667,0.05,0,0,0,1,0,0.75,0.5,0.222222,0,0,0.115,0.285714,0.0222222,,0.650769,0.644918,0.920094,0.479075
0,0,0.933271,0.526316,0,0,0,1,0.5,0.333333,0.333333,1,0.0285714,0,0,0,0,1,1,0.25,0.333333,0.333333,0.166667,0.12,0.714286,0.0555556,,0.268923,0.771644,0.886016,0.323236
0.839944,0,0.0933271,0.526316,0,0,0.824516,0,1,0.666667,0.666667,0.666667,0.0285714,0,0,0,1,1,0.75,0.125,0.111111,0.666667,0.5,0.1,0.428571,0.111111,,0.72,0.65872,0.884841,0.729374
0.933271,0,0,0,1,0,0.494709,0.4,1,1,1,0.666667,0.0714286,0,0,0,0,1,0.75,0.125,0.166667,0.666667,0.75,0.7,0.285714,0.111111,,0.0316923,0.0941029,0.599295,0.002789956
0,0,0.933271,0.526316,0,0,0,1,0.5,0.333333,0.333333,1,0.0857143,0,0,0,0,0,0.25,0.375,0.333333,0,0,0,0.714286,0.0555556,,0.196923,0.74655,0.787309,0.203268
0,0,0.933271,0.515789,0,0.0279916,0.549677,0.333333,0.5,0.333333,0.333333,0.333333,0.113571,0,0,0,1,1,0.75,0.125,0.111111,0.666667,0.5,0,0.285714,0.0555556,,0.470769,0.654329,0.821387,0.438422
0,0.963391,0,0.526316,0,0,0.824516,0,0.5,0.333333,0.333333,0.666667,0.0892857,0,0,0,0,0,0.75,0.5,0.333333,0,0,0.5,0.428571,0.0555556,,0.698462,0.6399,0.810811,0.637704
0,0.770713,0.186654,0.526316,0,0,0.780541,0.0533333,0.5,0.333333,0.333333,0.333333,0.114286,0,1,1,0,1,0.75,0.125,0.111111,1,0.25,0.1,0.285714,0.111111,,0.673846,0.673149,0.871915,0.691511
0.0298647,0.818882,0.0466636,0.526316,0,0,0.680225,0.188,0.5,0.333333,0.333333,0.333333,0.114286,0,1,1,0,1,0.75,0.125,0.111111,1,0.333333,0.01,0.285714,0.666667,,0.624615,0.685069,0.822562,0.617776
0.167989,0.693642,0.0933271,0.263158,0.5,0,0.824516,0,1,1,1,0.666667,0.075,0,1,1,1,1,0.5,0.625,0.111111,0,0,0,0.285714,0.0777778,,0.870769,0.451694,0.767333,0.530092
0,0,0.933271,0.526316,0,0,0.549677,0.333333,0.5,0.333333,0.333333,0.333333,0.107143,0,0,0,0,0,0.25,0.1875,0.444444,0,0,0,0.8,0.111111,,0.333846,0.752823,0.822562,0.362694
0.933271,0,0,0.526316,0,0,0.824516,0,0.5,0.333333,0.333333,0.333333,0.0507143,1,0,0,1,1,0.25,0.125,0.111111,0.5,0.25,0,0.285714,0.111111,,0.700615,0.609159,0.813161,0.609805
0,0,0.933271,0,1,0,0.797032,0.0333333,0.5,0.333333,0.333333,0.333333,0.142857,0,1,0,1,0,0.5,0.25,0.444444,0,0,0,0.285714,0.111111,,0.743385,0.139272,0.387779,0.0701475
0,0,0.933271,0,1,0,0,1,0.5,0.333333,0.333333,0.333333,0.05,0,0,0,0,0,0.25,0.1875,0.444444,0,0,0,0.8,0.0222222,,0.338462,0.784191,0.881316,0.410522
0,0,0.933271,0.526316,0,0,0.549677,0.333333,0.5,0.666667,0.666667,0.666667,0.0857143,0,0,0,0,0,0.75,0.625,0.333333,0,0,0,0.8,0.0666667,,0.375385,0.742158,0.787309,0.385413
0,0,0.933271,0.526316,0,0,0.549677,0.333333,0.5,0.333333,0.333333,0.666667,0.0857143,0,0,0,0,0,0.75,0.625,0.333333,0,0,0,0.8,0.0666667,,0.404923,0.782936,0.869565,0.484257
0,0,0.933271,0.526316,0,0,0.549677,0.333333,0.5,0.333333,0.333333,0.666667,0.0857143,0,0,0,0,0,0.75,0.625,0.333333,0,0,0,0.8,0.0666667,,0.392923,0.76537,0.810811,0.426465
0,0.963391,0,0,1,0,0.824516,0,1,1,1,0.666667,0.0160714,1,0,1,1,0,0.5,0.625,1,0,0,0.8,0.2,0.111111,,0.652308,0.303011,0.782609,0.271024
0,0.963391,0,0.526316,0,0,0.824516,0,0.5,0.666667,0.666667,0.333333,0.0571429,0,0,0,0,0,0.75,0.5,0.666667,0,0,0.75,0.428571,0.111111,,0.691077,0.564617,0.652879,0.450777
0.933271,0,0,0.394737,0.25,0,0.824516,0,0.5,1,1,0.666667,0.0642857,0,0,0,1,1,0.75,0.625,0.333333,0.666667,0.5,0,0.342857,0.222222,,0.611077,0.590339,0.834548,0.530092
0.933271,0,0,0.263158,0.5,0,0.824516,0,1,1,1,0.666667,0.0714286,0,0,0,0,1,1,0.125,0.166667,0.666667,0.666667,0.3,0.285714,0.111111,,0.573846,0.388959,0.646298,0.253487
0.933271,0,0,0.394737,0.25,0,0.824516,0,0.5,1,1,0.666667,0.0642857,1,0,0,1,1,0.75,0.625,0.333333,0.833333,0.5,0,0.342857,0.222222,,0.431077,0.457967,0.916569,0.55839
0,0,0.933271,0.526316,0,0,0.549677,0.333333,0.5,0.333333,0.333333,0.333333,0.0642857,1,0,0,1,1,0.75,0.125,0.111111,0.666667,0.666667,0.278,0.371429,0.111111,,0.456,0.702635,0.80658,0.455161
0,0,0.933271,0.526316,0,0,0.824516,0,0.5,0.333333,0.333333,0.333333,0.0642857,1,1,1,1,0,0.75,0.5,0.333333,0,0,0,0.857143,0.111111,,0.450462,0.760979,0.92832,0.559187
0.001933969,0.003478622,0.933008,0.530083,0,0.002174441,0.551706,0.336068,0.502175,0.336925,0.330656,1.00547,0.04920645,0,0.997606,0,1.00039,0,0.748972,0.348073,0.277968,0.004000987,0.006314724,0,0.996732,0.0548756,,0.422154,0.734003,0.79906,0.434436
0.0471146,0.916277,0.000231642,1.00154,0,0,0.617943,0.0818527,0.496524,0.666083,0.665965,0.334093,0.08277655,0.999881,1.00462,0,1.00566,1.00084,0.998788,0.0286919,0.112243,0.663867,0.503003,0.19975,0.426407,0.110516,,0.759692,0.683814,0.878966,0.802312
0.934481,0.00710742,0,0.002061544,1.00152,0,0.827186,0.001581102,0.498723,0.330266,0.334449,0.326899,0.097563,0,0.996611,1.00066,0.002472975,0,0.494481,0.188691,0.330403,0,0.004519977,0,0.285233,0.221529,,0.612923,0.236826,0.607873,0.155042
0.001667652,0.000631952,0.931746,0.529046,0.003853787,0.003848324,0,0.992216,0.506444,0.333296,0.328466,0.333751,0.112399,0.005051479,0.002933821,0,0.000586909,0.001990212,0.248478,0.317887,0.668045,0,0.000749006,0.004815269,0.214998,0.332257,,0.207692,0.627353,0.869565,0.198485
0.000820018,0.003410401,0.929906,0.517782,0.003077369,0.0147721,0.001757535,1.00107,0.500585,0.330653,0.330962,0.999892,0.0655311,0.003148655,0.00153718,0.0066223,0.999703,1.0009,0.250153,0.247715,0.329235,0.334702,0.500812,0.001966874,0.711969,0.0464348,,0.212,0.859473,0.896592,0.291351
0.004383271,0.960638,0,0.525725,0,0,0.825347,0,0.500064,0.334941,0.341717,0.666481,0.0905582,0,0,0,0.004944893,0.00673625,0.75544,0.503542,0.33372,0.002347905,0,0.498437,0.424849,0.0588421,,0.646154,0.608532,0.764982,0.530092
0.001275091,0.967598,0,0.521588,0,0,0.831684,0,0.503262,0.327638,0.335816,0.663015,0.0927294,0,0.000894109,0.000137176,0,0,0.751845,0.500834,0.328648,0,0,0.502179,0.426772,0.0571812,,0.692308,0.664994,0.858989,0.697489
0.0490801,0.723597,0.142308,0.526983,0.001199433,0,0.660028,0.199079,0.502618,0.332772,0.333392,0.336149,0.115413,0.000308985,0.99674,1.0037,0,1.00227,0.749952,0.122114,0.114326,1.00474,0.335662,0.0135929,0.286499,0.668701,,0.643077,0.65872,0.857814,0.637704
0.185528,0.768183,0.003831018,0.267424,0.498107,0.001605341,0.822455,0.002208011,0.998984,0.99757,0.996651,0.665933,0.0737453,0.000567484,0.999654,1.00029,0.994811,1.00339,0.504588,0.623915,0.112839,0.006357129,0,0,0.2881274,0.0749371,,0.950769,0.483061,0.743831,0.605819
0,0.002452521,0.934001,0.526179,0,0.001944396,0.54584,0.329761,0.502241,0.341264,0.327712,0.332535,0.105281,0,0,0,0.001060836,0.00506635,0.24767,0.193777,0.438853,0,0.005784645,0,0.798687,0.110641,,0.268615,0.727729,0.705053,0.243125
0.936791,0,0.007262029,0.527383,0.000907905,0,0.822426,0.002518821,0.501398,0.333731,0.336545,0.331272,0.050986,1.00232,0,0,0.99983,1.00059,0.252031,0.123342,0.113177,0.496739,0.24731,0,0.284011,0.117477,,0.685538,0.612296,0.819036,0.604225
0.92976,0,0,0.523417,0,0,0.33888,0.490825,0.496805,0.336344,0.332038,0.333355,0.138885,0.000302473,0.003096286,0,0,0,0.245915,0.750034,0.05342992,0.004515323,0.000938475,0.000256949,0.196024,0.330648,,0.195385,0.523212,0.615746,0.111598
0,0.001913236,0.930947,0,0.999422,0.002941756,0.00172014,0.995111,0.4952,0.337535,0.333483,0.333097,0.0513706,0,0,0.000518891,0,0.002617762,0.247713,0.185534,0.446412,0.001587305,0,0.002626081,0.79306,0.0219896,,0.313846,0.727729,0.857814,0.346752
0.000670565,2.28E-05,0.93643,0,0.999569,0.005508818,0.001409805,1.00132,0.495429,0.330813,0.328387,0.332503,0.0488617,0.005589193,0,0,0,0,0.246987,0.189676,0.449073,0,0,0.004398925,0.79569,0.024148,,0.36,0.76537,0.822562,0.398565
0.003067332,0.00783991,0.929241,0.531046,0,0,0.547527,0.3297,0.497961,0.664996,0.669508,0.669508,0.0873655,0.002673069,0.002745371,0,0.997179,0.003776257,0.752713,0.628116,0.331097,0.00487528,0.000698062,0,0.793861,0.0657838,,0.365846,0.774153,0.834313,0.415305
0.000676092,0,0.931123,0.531684,0.002584804,0,0.548332,0.334265,0.501051,0.334811,0.330056,0.670075,0.0886462,0.001036187,0,0.003200464,0.001194687,0.005748064,0.746092,0.621839,0.324833,0,0.001411227,0,0.798575,0.066574,,0.385846,0.763488,0.857814,0.443603
0.002467819,0,0.931118,0.001552978,1.00032,0,0.821778,0.00126435,0.503249,0.339138,0.334584,0.335633,0.09576895,0,1.00314,0.997299,1.00081,0,0.752814,0.314731,0.665874,0.006940436,1.24E-05,0.001559946,0.282869,0.223356,,0.740308,0.183061,0.399765,0.0952571
0,0.968823,0,0.00536492,0.999251,0,0.825591,0,0.997701,0.999321,0.998605,0.666302,0.0193852,1.00258,0,0.997947,0.998554,0.007587695,0.49794,0.624166,1.00034,0.003766442,0.000427296,0.80098,0.202041,0.106591,,0.553846,0.337516,0.827262,0.271024
0.751408,0,0.183297,0.526476,0.000731171,0.000198003,0.826791,0,0.496959,0.672866,0.669668,0.335716,0.053283,0,0.994585,0.001778861,0.996698,0.004125417,0.757017,0.499248,0.663987,0,0,0.747292,0.290408,0.110598,,0.664615,0.621079,0.852409,0.620167
0.231451,0.724725,0.004122229,0.395644,0.251239,0.003014308,0.822205,0.002990408,0.998269,0.66889,0.667312,0.667889,0.0651236,0.993523,0,0,0.003850246,1.00552,1.00742,0.1287,0.1605542,0.664609,0.746772,0.705095,0.28715,0.1057,,0.509231,0.439147,0.763807,0.30012
0,0.000984028,0.932571,0.531766,0.003345433,0,0.549967,0.333849,0.49729,0.996137,0.999762,0.659277,0.0483537,1.00204,0.999336,0.005548904,0.995704,0.998144,0.746774,0.122423,0.0538252,0.499764,0.49993,0,0.457405,0.0552562,,0.478462,0.72271,0.949354,0.576724
0,0,0.938546,0.527443,0,0.002510277,0.554543,0.325281,0.495079,0.329029,0.333815,0.338986,0.0610339,0.000842116,0,0.005557562,0.000804686,1.00054,0.750611,0.121221,0.11022,0.674631,0.665964,0.280714,0.370994,0.117192,,0.416923,0.677541,0.763807,0.37784
0,0.002382809,0.934049,0.523691,0,0,0.546802,0.329849,0.5011713,0.332176,0.336301,0.338042,0.0658063,1.0012,0.004560805,0,1.0052,0.999373,0.744847,0.123412,0.1104,0.663396,0.7504288,0.150606,0.571755,0.110452,,0.468308,0.752823,0.891774,0.552411
0.22913,0.72082,0.003096936,0.002084484,0.847158,0.20926,0.825921,0,1.0032,1.00214,0.992733,0.333218,0.0787332,0,0.999418,0,0,0.003167243,0.248612,0.624283,0.553335,0.001636346,0.001636711,0.274891,0.194868,0.112474,,0.364308,0.0941029,0.540541,0.0318852