File: 4.GBDT/.ipynb_checkpoints/data - 副本-checkpoint.csv
MA,FA,Cs,Pb,Sn,Other,I,Br,Gap,Po,ETL,HTL,Ne,Add_O,Add_I,Add_H,Step,Solvent,Coated1_v,Coated1_t,Coated2_v,Coated2_t,Antisolvent,Anneal_T,Anneal_t,Jsc,Voc,FF,PCE
1,0,0,1,0,0,1,0,0.61597,1,1,1,0.666667,0,0,0,0.5,0.75,0.5,0.222222,0,0,1,0.285714,0.0222222,21.15,1.028,0.783,12.02
0,1,0,0,1,0,1,0,0.528517,1,1,0.666667,1,1,1,1,0.5,0.75,1,0.666667,0,0,1,0.228571,0.111111,24.2,0.76,0.6573,12.09
0,1,0,1,0,0,1,0,0.587452,0,0.666667,0.333333,0.333333,1,1,0,1,1,0.0375,0.111111,0.666667,0.5,1,0.428571,0.111111,23.89,1.03,0.756,18.65
1,0,0,0.95,0,0.05,0.966667,0.0333333,0.60076,0,0.333333,0.333333,0.666667,1,0,0,1,1,0.125,0.222222,0.666667,0.666667,0,0.285714,0.111111,22.81,1.13,0.74,19.02
0,0,1,1,0,0,1,0,0.665399,0,0.333333,0,1,0,0,0,0.5,0.5,0.25,0.333333,0,0,0,0.314286,0.111111,13.46,0.71,0.46,4.45
0,0,1,0.8,0,0.2,0,1,0.844106,0,0.333333,0,1,0,0,0,1,0.25,0.25,0.333333,0.333333,0.5,0,0.714286,0.0555556,7.44,1.508,0.745,8.36
0,0.95,0.05,1,0,0,1,0,0.577947,0,0.333333,0.333333,0.666667,0,0,0,0.5,0.75,0.5,0.333333,0,0,1,0.428571,0.0555556,21.3,1,0.689,14.7
0,1,0,1,0,0,1,0,0.574144,0,0.333333,0.333333,0.666667,0,0,0,0.5,0.75,0.5,0.333333,0,0,1,0.428571,0.0555556,22.1,0.99,0.69,15.2
0.1,0.75,0.15,1,0,0,0.83,0.17,0.631179,0,0.333333,0.333333,0.333333,0,1,1,1,0.75,0.125,0.111111,1,0.333333,1,0.285714,0.666667,20.9,1.05,0.73,16
0,0,1,1,0,0,0.666667,0.333333,0.730038,0,0.333333,0.333333,0.333333,0,0,0,0.5,0.25,0.1875,0.444444,0,0,0,0.8,0.111111,10.81,1.21,0.73,9.5
1,0,0,1,0,0,1,0,0.596958,0,0.333333,0.333333,0.333333,0,0,0,1,1,0.125,0.111111,0.5,0.25,0,0.285714,0.111111,17.2,0.811,0.612,8.54
1,0,0,1,0,0,0.88,0.12,0.61597,0,0.333333,0.333333,0.333333,0,0,0,0.5,0.25,0.75,0.0555556,0,0,0,0.2,0.333333,13.89,0.89,0.6531,8.13
0,0,1,1,0,0,0.666667,0.333333,0.730038,0,0.333333,0.333333,0.333333,0,0,0,0.5,0.25,0.1875,0.444444,0,0,0,0.8,0.0222222,10.2,1.16,0.73,8.6
0,0,1,1,0,0,0.666667,0.333333,0.730038,0,0.333333,0.333333,0.333333,0,0,0,0.5,0.25,0.1875,0.444444,0,0,0,0.8,0.0222222,11.4,1.21,0.69,9.6
0,0,1,1,0,0,0.666667,0.333333,0.726236,0,0.666667,0.333333,0.666667,0,0,0,0.5,0.75,0.625,0.333333,0,0,0,0.8,0.0666667,11.87,1.247,0.74,10.95
0,0,1,1,0,0,0.666667,0.333333,0.726236,0,0.333333,0.333333,0.666667,0,0,0,0.5,0.75,0.625,0.333333,0,0,0,0.8,0.0666667,13.44,1.22,0.66,10.78
0,1,0,0,1,0,1,0,0.547529,1,1,0.666667,0.666667,1,0,1,0.5,0.5,0.625,1,0,0,1,0.2,0.111111,21.2,0.483,0.666,6.8
0,0.95,0.05,1,0,0,1,0,0.58327,0,0.666667,0.333333,0.333333,0,0,0,0.5,0.75,0.5,0.666667,0,0,1,0.428571,0.111111,21.69,0.93,0.5852,11.79
0,0,1,1,0,0,0,1,0.878327,0,0.333333,0,1,0,0,0,0.5,0.75,0.25,0.333333,0,0,0,0.714286,0.0555556,6.98,1.42,0.77,7.58
0.9,0,0.1,0.5,0.5,0,1,0,0.486692,1,1,0.666667,0.666667,0,1,1,1,1,0.125,0.166667,0.666667,0.666667,1,0.285714,0.111111,23.32,0.7,0.617,10.07
1,0,0,1,0,0,1,0,0.570342,0,0.333333,0.333333,0.333333,0,0,0,0.5,0.25,0.75,0.666667,0,0,0,0.2,0.333333,20.31,1.036,0.723,15.23
0,0,1,1,0,0,0.666667,0.333333,0.722433,0,0.333333,0.333333,0.333333,0,0,0,1,0.75,0.125,0.111111,0.666667,0.75,1,0.571429,0.111111,14.73,1.1,0.6547,10.64
0,1,0,0,1,0,1,0,0.532319,1,1,0.666667,0.666667,0,0,0,0.5,0.75,0.625,0.333333,0,0,0,0.271429,0.166667,18.27,0.366,0.5699,3.82
0,1,0,0,1,0,1,0,0.532319,1,1,0.666667,0.666667,0,0,0,0.5,0.75,0.625,0.333333,0,0,0,0.271429,0.166667,21.6,0.479,0.6063,6.28
0.05,0.9,0.05,1,0,0,0.9,0.1,0.603042,0,0.333333,1,0.666667,0,0,0,1,0.75,0.125,0.111111,0.666667,0.333333,1,0.285714,0.666667,25.02,1.16,0.8,23.22
0.14,0.8,0.06,1,0,0,1,0,0.589354,1,1,0,0.666667,1,0,1,1,0.75,0.125,0.111111,0.833333,0.5,1,0.285714,0.333333,24.71,1.17,0.8389,24.25
0,1,0,1,0,0,1,0,0.580608,0,0.666667,1,0.333333,0,0,0,1,0.75,0.125,0.0555556,0.833333,0.583333,1,0.285714,0.277778,24.85,1.143,0.8212,22.38
1.00155,0,0.003257823,0.998891,0.002276238,0,1.00363,0.001293994,0.613457,0,0.667486,0.331817,0.335022,0.002524746,0,0,0.496861,0.75121,0.496396,0.33081,0.001053457,0,1.00305,0.27798,0.114019,22.02,0.97,0.758,16.22
3.25E-05,0.999616,0,0.001207033,0.994757,0.001433022,0.999729,0,0.523476,0.998884,1.00236,0.670634,0.994838,1.00061,0.999447,0.997711,0.501545,0.75052,0.997233,0.667107,0,0.003429179,0.998817,0.227942,0.109846,24.81,0.76,0.6959,13.12
0.996944,0.002746905,0,0.999912,0.001228304,0.000704564,0.998231,0,0.615265,0.99921,0.998883,0.996817,0.668359,0,0.005625102,0.002383929,0.497332,0.752409,0.497937,0.220965,0.005193293,0.004590964,1.00597,0.290155,0.022127,21.09,1.06,0.78,18.15
1.00051,0.000269063,0,0.900586,0.0501455,0.04791234,0.965342,0.03194467,0.602917,0,0.335755,0.333468,0.66591,1.00236,0.004378059,0.003881636,1.00027,1.00222,0.125255,0.224438,0.668422,0.666085,0.006498492,0.28557,0.111172,23.97,1.08,0.81,21.08
0,0.002098242,1.00166,1.00027,0,0.003478422,1.00053,0.000418033,0.66356,0,0.333985,0.007248004,1.00243,0.002452719,0.00233703,0.000749755,0.499543,0.497519,0.252919,0.330076,0,0,0,0.314682,0.111291,13.43,0.65,0.38,3.32
0,0.00124392,0.999062,0.699093,0.000587604,0.29955,0,0.998656,0.825981,0.001790139,0.333259,0.003505892,1.005,0,0,0.001400069,1.00542,0.255759,0.249749,0.330281,0.334408,0.497531,0,0.712993,0.0548467,7.45,1.536,0.802,9.2
0,0.900014,0.0991056,1.00452,0.005035591,0,0.99606,0.005506936,0.581445,0.002240173,0.338642,0.327407,0.665358,0,0,0,0.498307,0.748977,0.496526,0.333419,0,0.0036812,1.00418,0.432264,0.0532057,21.6,1.03,0.721,16
0.00239208,0.996366,0,1.00116,0.000197957,0,1.00091,0,0.572755,0,0.332848,0.336785,0.66906,0.004083726,0.002665298,0.000483124,0.503357,0.748101,0.497035,0.334976,0,0.002456415,0.998266,0.425374,0.0557386,22.7,1.03,0.723,17
0.116924,0.830476,0.0475593,1.00449,0.000313167,0,0.829716,0.171027,0.6267556,0,0.33242,0.330014,0.332921,0,1.00183,1.00284,0.999159,0.755019,0.128684,0.107423,1.00049,0.329739,1.00259,0.285969,0.668216,20.3,1.092,0.7,15.5
0,0.005000378,0.996531,0.998988,0,0,0.660855,0.340208,0.731871,0.001558247,0.332681,0.333258,0.334441,0,0,0.003363193,0.498853,0.248605,0.190499,0.448538,0,0.001760682,0.002821782,0.805978,0.111704,9.66,1.18,0.67,7.6
1.00673,0,0,1.00497,0.001497917,0.001087768,0.999083,0.001236143,0.596034,0.004408395,0.330582,0.335176,0.336683,1.00157,0,0.001573146,0.998247,0.999862,0.126677,0.111396,0.501207,0.243909,0.001504512,0.282535,0.106871,22.28,0.976,0.697,15.16
1.00073,0.00563422,0.006856767,1.00148,0.004724384,0,0.743344,0.259457,0.64306,0.004461117,0.333996,0.339198,0.330351,0,0.006488679,0.002352779,0.506023,0.253064,0.749384,0.0585147,0,0.003188289,0.000459663,0.198669,0.331121,10.39,0.936,0.6195,6.13
0,0.005855955,0.999773,1.00386,0.001700835,0.001851367,0.666311,0.335896,0.726941,0,0.332057,0.330392,0.333924,0,0,0,0.499609,0.252574,0.189015,0.446504,0,0.014639,0,0.795778,0.0191095,10.2,1.16,0.73,8.7
0,0.004184308,1.00191,0.997613,0.000556671,0,0.670162,0.336555,0.722955,0,0.666946,0.330189,0.333941,0.005317493,0,0.002637715,0.501672,0.749329,0.376134,0.276144,0.000228977,0,1.00097,0.459129,0.109613,9.06,1.02,0.572,5.3
0.00221767,0.001908704,1.00111,0.999966,0,0.006305653,0.660919,0.335809,0.723517,0,0.668853,0.333167,0.66422,0,0,0,0.508738,0.749484,0.627691,0.335328,0.000209779,0,0,0.794033,0.0654072,12.15,1.287,0.77,12.04
0,0,0.998556,0.997922,0,0,0.665008,0.337569,0.720774,0,0.330811,0.338562,0.660176,0,0.005319647,0,0.498584,0.748811,0.621843,0.33476,0.002707044,0.002732071,0.001749412,0.803333,0.0706592,12.5,1.185,0.72,10.7
0.007700736,1.00014,0,0,0.997807,0,0.995829,0,0.545155,0.993853,1.00265,0.667979,0.664124,0.99914,0.002769295,1.00118,0.499952,0.496546,0.619053,1.00921,0.004074418,0.004626518,1.00328,0.201565,0.114022,20.5,0.485,0.671,6.7
0.00367212,0.903204,0.107182,1.00364,0,0,0.999435,0.002970347,0.593043,0,0.664456,0.329495,0.329659,0.003209165,0,0.004221468,0.498858,0.74987,0.501246,0.671561,0,0,0.99725,0.4276,0.109634,21.8,0.99,0.7167,15.4
0.001584651,2.51E-05,0.996664,0.999187,0.002141678,0,0.002287919,1.00118,0.877556,0,0.331622,0,1.00314,0,0.000600455,0,0.500117,0.752005,0.254636,0.329503,0.005171366,0,0,0.71817,0.05604686,5.91,1.31,0.77,5.94
0.900277,0,0.103392,0.247846,0.747129,0,1.0006,0,0.48057,0.997577,1.00205,0.669155,0.669516,0.005526643,0.996405,0.997459,1.00423,0.996538,0.126436,0.167338,0.665821,0.665424,1.00241,0.283965,0.108722,21.84,0.48,0.609,6.38
1.00026,0,0.005501661,0.994132,0,0,1.00165,0.004091369,0.590967,0,0.334817,0.335833,0.997572,0.00193696,0,0,0.49866,0.246709,0.820032,0.335109,0.002119427,0,0.000676022,0.284968,0.108176,18.7,1.11,0.67,13
0,0,0.996448,0.998563,0,0,0.670699,0.332648,0.723851,0,0.329953,0.330784,0.33242,1.00749,0.002132861,0,1.00106,0.75425,0.121406,0.108887,0.668844,0.744865,0.994805,0.572673,0.10829,15.33,1.22,0.787,14.78
0.000668737,0.997216,0.001316225,0.004352899,0.999299,0,0.99962,0.000668417,0.532368,1.00317,0.995212,0.671555,0.665511,0.000429629,0,0.001886435,0.501507,0.750376,0.624537,0.331698,0.001963352,0.003498122,0.003913424,0.270174,0.164637,18.31,0.363,0.5581,3.71
0,1.00596,0,0.001110613,0.997366,0,0.998119,0,0.529295,1.00042,0.99599,0.668051,0.669168,0.000221315,0,0.001635599,0.503295,0.751093,0.622673,0.33248,1.92E-05,2.15E-05,0,0.27212,0.167939,21.35,0.481,0.6074,6.25
0.0205958,0.981888,0.0521198,1.00322,0,0.000509593,1.00271,0.004903565,0.591194,0.000130988,0.9991,0.004155364,0.99802,0,0.000338779,1.00188,0.998731,0.747533,0.255853,0.280602,0.832782,0.495559,0.99766,0.309836,0.224893,25.57,1.123,0.832,23.88
0.137796,0.803605,0.0630193,1.00018,0.002734603,0,0.996721,0.000163764,0.589109,0.998799,0.996988,0,0.663279,1.00702,0,1.0004,0.996381,0.753892,0.1246,0.109809,0.833423,0.501978,0.9996391,0.286382,0.332271,24.48,1.17,0.8298,23.74
0,1.00198,0,0.996397,0,0.000414398,1.00065,0.001322373,0.581186,0,0.663666,0.998456,0.332734,0,0.001066375,0.003008545,1.00078,0.749047,0.12451,0.0554984,0.830861,0.581996,1.00485,0.292888,0.285336,25.31,1.149,0.827,23.27
0,0.749821,0.246697,0.599404,0.400568,0,1.00027,0,0.47379,1.0008,1.0022,0.668913,0.669112,1.00092,0.000690753,0,0.495419,0.994599,0.496711,0.330704,0,0,0.9989201,0.287218,0.0753101,30.56,0.88,0.8,21.6